PIV MEASUREMENT - Optoelectronics group LDCS version 1.1.0
Tom_0.75_2,06/12/2023,09:34:45

SOURCE_INST,SOURCE_PG_GPIO_SN,SOURCE_PG_ID,SOURCE_PG_CALIB_CONSTANT,SOURCE_PG_CALIB_DATE,SOURCE_TYPE,SOURCE_PG_OSC_INST,SOURCE_PG_OSC_SN,SOURCE_PG_OSC_AVE,SOURCE_PG_OSC_SCAL,SOURCE_PG_OSC_RANG_V,SOURCE_PG_OSC_PROB_V,SOURCE_PG_OSC_UNIT_V,SOURCE_PG_OSC_RANG_I,SOURCE_PG_OSC_PROB_I,SOURCE_PG_OSC_UNIT_I,SOURCE_PG_FREQ,SOURCE_PG_OSC_AUTO,SOURCE_PG_RES,SOURCE_PG_MAX_I,SOURCE_PG_MAX_V,SOURCE_PG_CALIB,SOURCE_PG_BG_V,SOURCE_PG_BG_I,POWER_INST,POWER_INST_SN,POWER_DETECTOR,POWER_DETECTOR_SN,POWER_DETECTOR_CALIB,POWER_WL,POWER_AVE,POWER_MAX,POWER_TR,POWER_ITH,PIV_MEAS_TIME,PIV_MEAS_END
Pulse generator (digital type),100062623,Q-PG-DP,2.098,30/11/23,Pulsed,Keysight DSOX1204A Oscilloscope,CN62096236,64,+500.0E-09,+5.50E+00,+1.0000000E+00,VOLT,+1.10E+00,+2.0980000E+00,AMP,+4.95050E+03,Auto osc. on,3,1.000000,5.000000,2.098000,-0.020700,0.000290,PM100USB,1916809,S142C,221018320,18-OCT-2022,623.700000,100.000000,0.000050,TR det. off,Ith det. off,223.838,Maximum current


Current (A), Power (W), Voltage (V)
-0.0002000000,-0.0000000002,-0.0419000000
-0.0000600000,0.0000000023,-0.0428000000
0.0000000000,0.0000000003,-0.0416000000
-0.0001300000,0.0000000024,-0.0408000000
0.0000300000,0.0000000009,-0.0415000000
-0.0000700000,0.0000000021,-0.0412000000
-0.0000600000,0.0000000024,-0.0418000000
-0.0000300000,0.0000000024,-0.0428000000
-0.0001000000,0.0000000018,-0.0426000000
-0.0001300000,0.0000000007,-0.0426000000
-0.0001200000,0.0000000020,-0.0427000000
-0.0000700000,0.0000000028,-0.0436000000
-0.0001400000,-0.0000000004,-0.0431000000
-0.0002300000,0.0000000013,-0.0427000000
-0.0001100000,0.0000000025,-0.0423000000
0.0000300000,0.0000000017,-0.0422000000
-0.0000400000,0.0000000010,-0.0419000000
-0.0001300000,0.0000000008,-0.0405000000
-0.0002400000,0.0000000018,-0.0439000000
-0.0002800000,0.0000000025,-0.0433000000
-0.0001400000,0.0000000014,-0.0431000000
-0.0004500000,0.0000000017,-0.0425000000
-0.0002200000,0.0000000026,-0.0434000000
-0.0002400000,0.0000000004,-0.0439000000
-0.0001900000,0.0000000022,-0.0431000000
-0.0002400000,0.0000000008,-0.0436000000
-0.0001600000,0.0000000018,-0.0427000000
-0.0002900000,0.0000000021,-0.0433000000
-0.0002300000,0.0000000011,-0.0425000000
-0.0001900000,0.0000000013,-0.0413000000
-0.0002200000,0.0000000016,-0.0432000000
-0.0002600000,0.0000000019,-0.0440000000
-0.0002900000,0.0000000004,-0.0445000000
-0.0002500000,0.0000000009,-0.0416000000
-0.0002100000,0.0000000013,-0.0433000000
-0.0002900000,0.0000000030,-0.0442000000
-0.0001200000,-0.0000000008,-0.0426000000
-0.0000200000,0.0000000007,-0.0422000000
-0.0001400000,0.0000000017,-0.0417000000
-0.0002300000,0.0000000017,-0.0424000000
-0.0001900000,0.0000000007,-0.0423000000
-0.0001800000,0.0000000002,-0.0421000000
-0.0000500000,0.0000000014,-0.0432000000
-0.0001300000,-0.0000000000,-0.0418000000
-0.0001600000,0.0000000015,-0.0434000000
-0.0001500000,0.0000000025,-0.0435000000
-0.0001600000,0.0000000001,-0.0431000000
-0.0001500000,0.0000000007,-0.0437000000
-0.0000300000,0.0000000022,-0.0423000000
-0.0001500000,0.0000000019,-0.0435000000
-0.0000900000,0.0000000010,-0.0437000000
-0.0000700000,0.0000000015,0.0590000000
-0.0002100000,0.0000000007,0.1285000000
-0.0002800000,0.0000000031,0.2008000000
-0.0000800000,0.0000000019,0.2963000000
-0.0000800000,0.0000000005,0.3845000000
-0.0001600000,0.0000000026,0.4756000000
-0.0001800000,0.0000000011,0.5583000000
-0.0000900000,0.0000000028,0.6540000000
-0.0002300000,0.0000000030,0.7558000000
-0.0000100000,0.0000000012,0.8283000000
-0.0002600000,0.0000000005,0.9261000000
-0.0002100000,0.0000000010,1.0056000000
-0.0001400000,0.0000000011,1.1075000000
-0.0000900000,0.0000000020,1.1860000000
0.0000000000,0.0000000013,1.2895000000
-0.0001100000,0.0000000009,1.3716000000
-0.0001100000,0.0000000019,1.4739000000
0.0000500000,0.0000000011,1.5719000000
-0.0000300000,0.0000000017,1.6471000000
0.0001300000,0.0000000001,1.7465000000
0.0007800000,0.0000000014,1.7993000000
0.0017700000,0.0000000013,1.8278000000
0.0034700000,0.0000000034,1.8478000000
0.0045900000,0.0000000026,1.8601000000
0.0059800000,0.0000000019,1.8694000000
0.0075600000,0.0000000026,1.8780000000
0.0097500000,0.0000000011,1.8873000000
0.0112600000,0.0000000025,1.8943000000
0.0128400000,0.0000000020,1.8994000000
0.0142400000,0.0000000023,1.9066000000
0.0162800000,0.0000000029,1.9123000000
0.0178900000,0.0000000036,1.9168000000
0.0196000000,0.0000000021,1.9240000000
0.0210000000,0.0000000017,1.9294000000
0.0228300000,0.0000000028,1.9331000000
0.0246100000,0.0000000022,1.9371000000
0.0262700000,0.0000000032,1.9406000000
0.0279600000,0.0000000041,1.9452000000
0.0297000000,0.0000000041,1.9493000000
0.0312900000,0.0000000034,1.9541000000
0.0330500000,0.0000000021,1.9575000000
0.0344300000,0.0000000038,1.9619000000
0.0363000000,0.0000000045,1.9649000000
0.0380300000,0.0000000042,1.9691000000
0.0396700000,0.0000000039,1.9725000000
0.0412800000,0.0000000046,1.9764000000
0.0430800000,0.0000000051,1.9794000000
0.0445600000,0.0000000055,1.9842000000
0.0464900000,0.0000000047,1.9880000000
0.0481800000,0.0000000054,1.9912000000
0.0502900000,0.0000000053,1.9947000000
0.0522300000,0.0000000052,1.9969000000
0.0538600000,0.0000000063,2.0013000000
0.0555400000,0.0000000057,2.0031000000
0.0570800000,0.0000000055,2.0060000000
0.0588100000,0.0000000052,2.0096000000
0.0603700000,0.0000000068,2.0134000000
0.0619200000,0.0000000061,2.0179000000
0.0638100000,0.0000000076,2.0196000000
0.0655600000,0.0000000075,2.0223000000
0.0673900000,0.0000000073,2.0246000000
0.0687800000,0.0000000068,2.0272000000
0.0706100000,0.0000000077,2.0316000000
0.0725000000,0.0000000068,2.0342000000
0.0742900000,0.0000000079,2.0369000000
0.0762300000,0.0000000076,2.0390000000
0.0777600000,0.0000000079,2.0427000000
0.0796300000,0.0000000081,2.0459000000
0.0814600000,0.0000000082,2.0473000000
0.0829800000,0.0000000085,2.0516000000
0.0846400000,0.0000000092,2.0546000000
0.0864700000,0.0000000083,2.0581000000
0.0883900000,0.0000000097,2.0602000000
0.0900200000,0.0000000099,2.0613000000
0.0919400000,0.0000000094,2.0657000000
0.0936700000,0.0000000101,2.0690000000
0.0953000000,0.0000000097,2.0716000000
0.0968600000,0.0000000103,2.0747000000
0.0989200000,0.0000000087,2.0786000000
0.1004600000,0.0000000111,2.0808000000
0.1021600000,0.0000000112,2.0829000000
0.1038200000,0.0000000102,2.0866000000
0.1056900000,0.0000000110,2.0892000000
0.1076800000,0.0000000098,2.0919000000
0.1094900000,0.0000000105,2.0944000000
0.1112200000,0.0000000109,2.0977000000
0.1131800000,0.0000000117,2.0997000000
0.1147100000,0.0000000121,2.1020000000
0.1170200000,0.0000000115,2.1056000000
0.1184600000,0.0000000122,2.1068000000
0.1205800000,0.0000000131,2.1093000000
0.1218500000,0.0000000120,2.1117000000
0.1239200000,0.0000000129,2.1151000000
0.1257700000,0.0000000131,2.1183000000
0.1273500000,0.0000000134,2.1199000000
0.1292000000,0.0000000126,2.1233000000
0.1312400000,0.0000000143,2.1270000000
0.1326000000,0.0000000158,2.1305000000
0.1349700000,0.0000000156,2.1327000000
0.1364500000,0.0000000153,2.1357000000
0.1386800000,0.0000000149,2.1372000000
0.1403100000,0.0000000148,2.1402000000
0.1418400000,0.0000000155,2.1445000000
0.1441500000,0.0000000156,2.1465000000
0.1458200000,0.0000000161,2.1503000000
0.1474900000,0.0000000157,2.1515000000
0.1496400000,0.0000000168,2.1547000000
0.1509500000,0.0000000164,2.1567000000
0.1528700000,0.0000000167,2.1596000000
0.1544200000,0.0000000157,2.1629000000
0.1568300000,0.0000000171,2.1659000000
0.1585500000,0.0000000168,2.1690000000
0.1604400000,0.0000000184,2.1719000000
0.1620600000,0.0000000183,2.1740000000
0.1641100000,0.0000000188,2.1779000000
0.1658500000,0.0000000183,2.1802000000
0.1676800000,0.0000000199,2.1820000000
0.1696000000,0.0000000206,2.1861000000
0.1716900000,0.0000000188,2.1896000000
0.1736300000,0.0000000209,2.1929000000
0.1756200000,0.0000000201,2.1947000000
0.1774300000,0.0000000207,2.1980000000
0.1795700000,0.0000000202,2.2027000000
0.1813500000,0.0000000215,2.2039000000
0.1836200000,0.0000000217,2.2060000000
0.1856800000,0.0000000210,2.2098000000
0.1871900000,0.0000000202,2.2121000000
0.1893300000,0.0000000218,2.2157000000
0.1916900000,0.0000000225,2.2195000000
0.1937300000,0.0000000225,2.2209000000
0.1956300000,0.0000000233,2.2245000000
0.1976800000,0.0000000231,2.2277000000
0.1998900000,0.0000000228,2.2318000000
0.2017100000,0.0000000236,2.2337000000
0.2037400000,0.0000000245,2.2373000000
0.2057600000,0.0000000243,2.2396000000
0.2078100000,0.0000000248,2.2439000000
0.2099400000,0.0000000248,2.2458000000
0.2117900000,0.0000000266,2.2484000000
0.2137900000,0.0000000255,2.2514000000
0.2157400000,0.0000000266,2.2544000000
0.2178200000,0.0000000261,2.2578000000
0.2201100000,0.0000000256,2.2607000000
0.2216500000,0.0000000276,2.2634000000
0.2241200000,0.0000000277,2.2670000000
0.2260800000,0.0000000278,2.2689000000
0.2281300000,0.0000000287,2.2724000000
0.2306300000,0.0000000288,2.2759000000
0.2327400000,0.0000000276,2.2793000000
0.2349300000,0.0000000298,2.2811000000
0.2370000000,0.0000000295,2.2846000000
0.2390900000,0.0000000307,2.2879000000
0.2411900000,0.0000000314,2.2910000000
0.2430900000,0.0000000310,2.2929000000
0.2454400000,0.0000000317,2.2972000000
0.2477400000,0.0000000324,2.3003000000
0.2500000000,0.0000000306,2.3022000000
0.2524000000,0.0000000330,2.3062000000
0.2549400000,0.0000000321,2.3082000000
0.2565800000,0.0000000334,2.3116000000
0.2588600000,0.0000000349,2.3152000000
0.2611700000,0.0000000328,2.3185000000
0.2635300000,0.0000000350,2.3212000000
0.2658300000,0.0000000350,2.3245000000
0.2683800000,0.0000000348,2.3264000000
0.2709800000,0.0000000359,2.3291000000
0.2734600000,0.0000000371,2.3332000000
0.2756800000,0.0000000364,2.3355000000
0.2775400000,0.0000000368,2.3394000000
0.2802100000,0.0000000384,2.3425000000
0.2823500000,0.0000000381,2.3449000000
0.2845200000,0.0000000384,2.3495000000
0.2875400000,0.0000000392,2.3527000000
0.2892500000,0.0000000392,2.3551000000
0.2915500000,0.0000000397,2.3589000000
0.2937300000,0.0000000408,2.3616000000
0.2962000000,0.0000000421,2.3655000000
0.2984400000,0.0000000425,2.3683000000
0.3009100000,0.0000000424,2.3725000000
0.3034200000,0.0000000422,2.3761000000
0.3055500000,0.0000000427,2.3793000000
0.3078200000,0.0000000431,2.3815000000
0.3102900000,0.0000000444,2.3847000000
0.3123800000,0.0000000451,2.3883000000
0.3153500000,0.0000000457,2.3912000000
0.3174200000,0.0000000463,2.3943000000
0.3198900000,0.0000000466,2.3978000000
0.3223400000,0.0000000472,2.4006000000
0.3245700000,0.0000000480,2.4045000000
0.3267200000,0.0000000487,2.4062000000
0.3294500000,0.0000000488,2.4105000000
0.3320700000,0.0000000497,2.4137000000
0.3347100000,-0.0000000940,2.4167000000
0.3371800000,0.0000000499,2.4196000000
0.3396000000,0.0000000496,2.4231000000
0.3420200000,0.0000000523,2.4257000000
0.3445400000,0.0000000517,2.4294000000
0.3469200000,0.0000000531,2.4321000000
0.3492800000,0.0000000533,2.4356000000
0.3518500000,0.0000000529,2.4394000000
0.3543600000,0.0000000547,2.4423000000
0.3570100000,0.0000000560,2.4451000000
0.3593800000,0.0000000562,2.4489000000
0.3621400000,0.0000000580,2.4515000000
0.3647400000,0.0000000584,2.4541000000
0.3667500000,0.0000000587,2.4566000000
0.3691200000,0.0000000594,2.4610000000
0.3719200000,0.0000000598,2.4651000000
0.3747100000,0.0000000598,2.4680000000
0.3775000000,0.0000000622,2.4704000000
0.3799200000,0.0000000630,2.4737000000
0.3826200000,0.0000000624,2.4768000000
0.3847700000,0.0000000643,2.4814000000
0.3867900000,0.0000000646,2.4841000000
0.3892700000,0.0000000663,2.4885000000
0.3920000000,0.0000000657,2.4905000000
0.3949700000,0.0000000677,2.4954000000
0.3974900000,0.0000000693,2.4977000000
0.4000900000,0.0000000689,2.5020000000
0.4033000000,0.0000000714,2.5048000000
0.4057800000,0.0000000707,2.5093000000
0.4081000000,0.0000000707,2.5120000000
0.4106800000,0.0000000738,2.5128000000
0.4130100000,0.0000000719,2.5159000000
0.4156900000,0.0000000746,2.5190000000
0.4179600000,0.0000000745,2.5220000000
0.4203300000,0.0000000756,2.5270000000
0.4227600000,0.0000000770,2.5285000000
0.4252700000,0.0000000790,2.5323000000
0.4272300000,0.0000000798,2.5362000000
0.4299100000,0.0000000802,2.5405000000
0.4323100000,0.0000000800,2.5422000000
0.4345900000,0.0000000805,2.5459000000
0.4367200000,0.0000000819,2.5485000000
0.4392700000,0.0000000830,2.5507000000
0.4412400000,0.0000000834,2.5532000000
0.4433600000,0.0000000829,2.5565000000
0.4453700000,0.0000000855,2.5589000000
0.4472800000,0.0000000872,2.5621000000
0.4493200000,0.0000000874,2.5644000000
0.4518900000,0.0000000879,2.5681000000
0.4537900000,0.0000000889,2.5710000000
0.4556700000,0.0000000887,2.5748000000
0.4577300000,0.0000000907,2.5764000000
0.4600700000,0.0000000921,2.5792000000
0.4619800000,0.0000000932,2.5833000000
0.4642200000,0.0000000949,2.5843000000
0.4663000000,0.0000000959,2.5880000000
0.4685100000,0.0000000950,2.5910000000
0.4704600000,0.0000000956,2.5921000000
0.4723000000,0.0000000978,2.5960000000
0.4741400000,0.0000000991,2.5988000000
0.4762500000,0.0000000990,2.6007000000
0.4781700000,0.0000000997,2.6042000000
0.4802200000,0.0000001024,2.6067000000
0.4823500000,0.0000001031,2.6093000000
0.4842500000,0.0000001020,2.6125000000
0.4859500000,0.0000001059,2.6154000000
0.4883600000,0.0000001059,2.6177000000
0.4896500000,0.0000001071,2.6201000000
0.4916100000,0.0000001087,2.6234000000
0.4933000000,0.0000001072,2.6248000000
0.4953400000,0.0000001099,2.6272000000
0.4968600000,0.0000001120,2.6289000000
0.4986500000,0.0000001126,2.6317000000
0.5001600000,0.0000001141,2.6332000000
0.5016500000,0.0000001126,2.6370000000
0.5034300000,0.0000001143,2.6396000000
0.5046400000,0.0000001164,2.6400000000
0.5062100000,0.0000001160,2.6423000000
0.5079800000,0.0000001186,2.6445000000
0.5094900000,0.0000001182,2.6470000000
0.5110300000,0.0000001191,2.6488000000
0.5124900000,0.0000001189,2.6517000000
0.5141000000,0.0000001213,2.6528000000
0.5156200000,0.0000001224,2.6550000000
0.5170800000,0.0000001239,2.6556000000
0.5185200000,0.0000001239,2.6588000000
0.5201900000,0.0000001259,2.6609000000
0.5216100000,0.0000001257,2.6637000000
0.5231300000,0.0000001262,2.6645000000
0.5245000000,0.0000001282,2.6668000000
0.5262200000,0.0000001302,2.6692000000
0.5278600000,0.0000001310,2.6703000000
0.5292200000,0.0000001288,2.6729000000
0.5306600000,0.0000001320,2.6759000000
0.5322300000,0.0000001352,2.6779000000
0.5337000000,0.0000001345,2.6793000000
0.5355400000,0.0000001354,2.6806000000
0.5368400000,0.0000001370,2.6833000000
0.5383300000,0.0000001363,2.6850000000
0.5398200000,0.0000001377,2.6883000000
0.5413200000,0.0000001397,2.6906000000
0.5427200000,0.0000001398,2.6913000000
0.5443100000,0.0000001409,2.6937000000
0.5453900000,0.0000001411,2.6955000000
0.5472100000,0.0000001454,2.6982000000
0.5486000000,0.0000001443,2.6977000000
0.5501500000,0.0000001453,2.7006000000
0.5516100000,0.0000001467,2.7020000000
0.5528500000,0.0000001469,2.7042000000
0.5545000000,0.0000001477,2.7060000000
0.5558500000,0.0000001507,2.7081000000
0.5574000000,0.0000001518,2.7095000000
0.5589200000,0.0000001529,2.7125000000
0.5603100000,0.0000001543,2.7151000000
0.5618600000,0.0000001549,2.7174000000
0.5633100000,0.0000001560,2.7194000000
0.5647500000,0.0000001578,2.7216000000
0.5662400000,0.0000001575,2.7216000000
0.5678000000,0.0000001605,2.7249000000
0.5690900000,0.0000001621,2.7276000000
0.5707900000,0.0000001620,2.7288000000
0.5721400000,0.0000001642,2.7308000000
0.5735200000,0.0000001664,2.7336000000
0.5749200000,0.0000001667,2.7342000000
0.5762900000,0.0000001670,2.7368000000
0.5778300000,0.0000001674,2.7386000000
0.5794500000,0.0000001707,2.7404000000
0.5809200000,0.0000001716,2.7422000000
0.5824100000,0.0000001730,2.7437000000
0.5838100000,0.0000001740,2.7462000000
0.5853300000,0.0000001765,2.7478000000
0.5867000000,0.0000001767,2.7484000000
0.5883000000,0.0000001794,2.7513000000
0.5896000000,0.0000001798,2.7527000000
0.5909700000,0.0000001816,2.7561000000
0.5922300000,0.0000001842,2.7572000000
0.5938900000,0.0000001846,2.7593000000
0.5951800000,0.0000001864,2.7614000000
0.5968700000,0.0000001872,2.7626000000
0.5982300000,0.0000001884,2.7643000000
0.5997200000,0.0000001902,2.7668000000
0.6010400000,0.0000001908,2.7690000000
0.6024000000,0.0000001920,2.7711000000
0.6040000000,0.0000001959,2.7727000000
0.6054600000,0.0000001956,2.7748000000
0.6068200000,0.0000001987,2.7758000000
0.6082800000,0.0000001992,2.7772000000
0.6095900000,0.0000002007,2.7799000000
0.6110900000,0.0000002032,2.7816000000
0.6124300000,0.0000002042,2.7836000000
0.6140400000,0.0000002053,2.7856000000
0.6154100000,0.0000002076,2.7874000000
0.6168000000,0.0000002098,2.7893000000
0.6182300000,0.0000002113,2.7899000000
0.6196200000,0.0000002123,2.7927000000
0.6209800000,0.0000002145,2.7950000000
0.6224700000,0.0000002153,2.7960000000
0.6235800000,0.0000002192,2.7981000000
0.6252400000,0.0000002193,2.7999000000
0.6265100000,0.0000002226,2.8015000000
0.6279300000,0.0000002246,2.8034000000
0.6291800000,0.0000002242,2.8055000000
0.6307500000,0.0000002281,2.8071000000
0.6322300000,0.0000002297,2.8088000000
0.6334700000,0.0000002303,2.8111000000
0.6349300000,0.0000002348,2.8115000000
0.6362500000,0.0000002363,2.8153000000
0.6377900000,0.0000002386,2.8164000000
0.6394700000,0.0000002406,2.8183000000
0.6405700000,0.0000002428,2.8197000000
0.6424100000,0.0000002457,2.8211000000
0.6435500000,0.0000002465,2.8236000000
0.6450300000,0.0000002493,2.8258000000
0.6463200000,0.0000002502,2.8276000000
0.6477900000,0.0000002542,2.8291000000
0.6492500000,0.0000002561,2.8304000000
0.6506900000,0.0000002580,2.8322000000
0.6520200000,0.0000002595,2.8355000000
0.6533800000,0.0000002626,2.8365000000
0.6549300000,0.0000002651,2.8384000000
0.6562300000,0.0000002678,2.8400000000
0.6575100000,0.0000002695,2.8407000000
0.6588500000,0.0000002711,2.8431000000
0.6601500000,0.0000002743,2.8458000000
0.6617000000,0.0000002772,2.8479000000
0.6632500000,0.0000002792,2.8495000000
0.6645600000,0.0000002824,2.8515000000
0.6660500000,0.0000002844,2.8527000000
0.6674900000,0.0000002885,2.8539000000
0.6688300000,0.0000002896,2.8560000000
0.6703000000,0.0000002935,2.8568000000
0.6718100000,0.0000002963,2.8596000000
0.6731300000,0.0000002985,2.8602000000
0.6746000000,0.0000003016,2.8623000000
0.6761000000,0.0000003049,2.8653000000
0.6774300000,0.0000003080,2.8665000000
0.6788700000,0.0000003112,2.8686000000
0.6802300000,0.0000003141,2.8700000000
0.6815600000,0.0000003167,2.8711000000
0.6831400000,0.0000003193,2.8725000000
0.6844700000,0.0000003239,2.8759000000
0.6859100000,0.0000003256,2.8770000000
0.6872900000,0.0000003311,2.8790000000
0.6886700000,0.0000003330,2.8796000000
0.6900900000,0.0000003386,2.8824000000
0.6912300000,0.0000003408,2.8842000000
0.6928500000,0.0000003427,2.8864000000
0.6939300000,0.0000003475,2.8867000000
0.6956500000,0.0000003503,2.8888000000
0.6970000000,0.0000003552,2.8904000000
0.6985600000,0.0000003579,2.8931000000
0.6999900000,0.0000003630,2.8950000000
0.7013500000,0.0000003673,2.8966000000
0.7029600000,0.0000003715,2.8991000000
0.7043500000,0.0000003746,2.9006000000
0.7056500000,0.0000003785,2.9017000000
0.7072700000,0.0000003850,2.9040000000
0.7085800000,0.0000003896,2.9058000000
0.7100500000,0.0000003941,2.9078000000
0.7114100000,0.0000003978,2.9104000000
0.7128300000,0.0000004026,2.9113000000
0.7142500000,0.0000004072,2.9125000000
0.7156400000,0.0000004128,2.9144000000
0.7170200000,0.0000004183,2.9159000000
0.7183500000,0.0000004245,2.9178000000
0.7197800000,0.0000004296,2.9202000000
0.7211900000,0.0000004350,2.9218000000
0.7225600000,0.0000004393,2.9230000000
0.7238800000,0.0000004457,2.9261000000
0.7250900000,0.0000004526,2.9280000000
0.7265800000,0.0000004588,2.9302000000
0.7280700000,0.0000004660,2.9308000000
0.7295200000,0.0000004735,2.9331000000
0.7309200000,0.0000004813,2.9348000000
0.7322200000,0.0000004889,2.9367000000
0.7336400000,0.0000004956,2.9381000000
0.7350800000,0.0000005044,2.9399000000
0.7361000000,0.0000005127,2.9405000000
0.7377600000,0.0000005214,2.9426000000
0.7390700000,0.0000005312,2.9446000000
0.7405000000,0.0000005401,2.9474000000
0.7418500000,0.0000005501,2.9488000000
0.7432600000,0.0000005621,2.9505000000
0.7447300000,0.0000005722,2.9521000000
0.7462300000,0.0000005839,2.9538000000
0.7475400000,0.0000005930,2.9558000000
0.7488500000,0.0000006067,2.9580000000
0.7503400000,0.0000006186,2.9592000000
0.7517700000,0.0000006312,2.9614000000
0.7531600000,0.0000006455,2.9648000000
0.7547700000,0.0000006585,2.9668000000
0.7560600000,0.0000006713,2.9673000000
0.7575000000,0.0000006876,2.9683000000
0.7588100000,0.0000007010,2.9713000000
0.7605200000,0.0000007168,2.9745000000
0.7618700000,0.0000007339,2.9739000000
0.7634500000,0.0000007516,2.9765000000
0.7650100000,0.0000007676,2.9774000000
0.7665500000,0.0000007840,2.9810000000
0.7679600000,0.0000008028,2.9838000000
0.7693100000,0.0000008223,2.9852000000
0.7707600000,0.0000008389,2.9880000000
0.7721400000,0.0000008606,2.9889000000
0.7736000000,0.0000008796,2.9909000000
0.7751300000,0.0000009011,2.9927000000
0.7763200000,0.0000009200,2.9940000000
0.7779900000,0.0000009442,2.9957000000
0.7791600000,0.0000009682,2.9971000000
0.7806100000,0.0000009921,2.9995000000
0.7819800000,0.0000010166,3.0013000000
0.7833900000,0.0000010438,3.0033000000
0.7848500000,0.0000010722,3.0040000000
0.7860800000,0.0000011023,3.0059000000
0.7876000000,0.0000011296,3.0075000000
0.7888400000,0.0000011635,3.0103000000
0.7902400000,0.0000011936,3.0125000000
0.7917400000,0.0000012238,3.0139000000
0.7930900000,0.0000012561,3.0152000000
0.7943900000,0.0000012906,3.0162000000
0.7957800000,0.0000013255,3.0194000000
0.7973000000,0.0000013611,3.0201000000
0.7985700000,0.0000013930,3.0222000000
0.8000300000,0.0000014310,3.0231000000
0.8011600000,0.0000014643,3.0250000000
0.8025700000,0.0000015014,3.0266000000
0.8038200000,0.0000015392,3.0288000000
0.8053400000,0.0000015769,3.0309000000
0.8066700000,0.0000016169,3.0323000000
0.8081900000,0.0000016570,3.0348000000
0.8092700000,0.0000016924,3.0361000000
0.8109200000,0.0000017331,3.0382000000
0.8121300000,0.0000017712,3.0389000000
0.8136300000,0.0000018107,3.0413000000
0.8148900000,0.0000018508,3.0437000000
0.8164100000,0.0000018905,3.0452000000
0.8179400000,0.0000019344,3.0476000000
0.8193400000,0.0000019744,3.0486000000
0.8206700000,0.0000020148,3.0510000000
0.8221600000,0.0000020582,3.0516000000
0.8233900000,0.0000020989,3.0534000000
0.8249000000,0.0000021407,3.0568000000
0.8259400000,0.0000021784,3.0576000000
0.8275500000,0.0000022256,3.0582000000
0.8290400000,0.0000022673,3.0598000000
0.8303300000,0.0000023148,3.0634000000
0.8317500000,0.0000023563,3.0646000000
0.8331200000,0.0000024022,3.0669000000
0.8344000000,0.0000024445,3.0687000000
0.8358200000,0.0000024894,3.0695000000
0.8371500000,0.0000025300,3.0702000000
0.8385200000,0.0000025773,3.0726000000
0.8398500000,0.0000026237,3.0751000000
0.8412200000,0.0000026686,3.0768000000
0.8426700000,0.0000027128,3.0785000000
0.8438900000,0.0000027610,3.0805000000
0.8453900000,0.0000028044,3.0828000000
0.8466500000,0.0000028477,3.0847000000
0.8479600000,0.0000028932,3.0860000000
0.8493700000,0.0000029411,3.0868000000
0.8508200000,0.0000029869,3.0883000000
0.8522800000,0.0000030361,3.0913000000
0.8535900000,0.0000030800,3.0921000000
0.8552300000,0.0000031267,3.0939000000
0.8562900000,0.0000031746,3.0954000000
0.8577200000,0.0000032186,3.0970000000
0.8588500000,0.0000032602,3.0992000000
0.8603300000,0.0000033128,3.1006000000
0.8614500000,0.0000033564,3.1017000000
0.8632600000,0.0000034079,3.1034000000
0.8644400000,0.0000034497,3.1062000000
0.8659300000,0.0000035021,3.1074000000
0.8672800000,0.0000035470,3.1098000000
0.8684800000,0.0000035929,3.1106000000
0.8698300000,0.0000036359,3.1116000000
0.8714100000,0.0000036862,3.1143000000
0.8726600000,0.0000037344,3.1163000000
0.8740600000,0.0000037822,3.1184000000
0.8756000000,0.0000038284,3.1198000000
0.8767800000,0.0000038818,3.1221000000
0.8783600000,0.0000039284,3.1228000000
0.8796800000,0.0000039753,3.1248000000
0.8810400000,0.0000040227,3.1272000000
0.8827100000,0.0000040720,3.1291000000
0.8841000000,0.0000041204,3.1301000000
0.8854900000,0.0000041686,3.1333000000
0.8867300000,0.0000042137,3.1344000000
0.8881000000,0.0000042647,3.1371000000
0.8895100000,0.0000043086,3.1379000000
0.8907500000,0.0000043596,3.1394000000
0.8920700000,0.0000044030,3.1410000000
0.8935200000,0.0000044515,3.1428000000
0.8949000000,0.0000045008,3.1458000000
0.8961500000,0.0000045495,3.1465000000
0.8976700000,0.0000045971,3.1479000000
0.8989900000,0.0000046429,3.1502000000
0.9002300000,0.0000046918,3.1518000000
0.9016100000,0.0000047373,3.1523000000
0.9029800000,0.0000047770,3.1539000000
0.9043500000,0.0000048292,3.1567000000
0.9057600000,0.0000048755,3.1591000000
0.9071700000,0.0000049226,3.1601000000
0.9083800000,0.0000049719,3.1612000000
0.9099100000,0.0000050218,3.1629000000
0.9112200000,0.0000050673,3.1652000000
0.9125700000,0.0000051119,3.1668000000
0.9139200000,0.0000051570,3.1698000000
0.9153500000,0.0000052079,3.1698000000
0.9168000000,0.0000052559,3.1719000000
0.9181800000,0.0000053054,3.1743000000
0.9195400000,0.0000053516,3.1760000000
0.9209700000,0.0000054017,3.1778000000
0.9222400000,0.0000054507,3.1797000000
0.9235100000,0.0000054998,3.1817000000
0.9249300000,0.0000055447,3.1820000000
0.9263800000,0.0000055955,3.1841000000
0.9278500000,0.0000056467,3.1865000000
0.9289700000,0.0000056954,3.1882000000
0.9303800000,0.0000057445,3.1903000000
0.9315200000,0.0000057947,3.1918000000
0.9330200000,0.0000058442,3.1931000000
0.9341500000,0.0000058930,3.1952000000
0.9355100000,0.0000059364,3.1968000000
0.9370300000,0.0000059901,3.1987000000
0.9382300000,0.0000060391,3.2003000000
0.9396300000,0.0000060904,3.2015000000
0.9408900000,0.0000061360,3.2039000000
0.9423700000,0.0000061912,3.2057000000
0.9438100000,0.0000062371,3.2076000000
0.9451600000,0.0000062859,3.2086000000
0.9463900000,0.0000063341,3.2104000000
0.9479300000,0.0000063869,3.2136000000
0.9491700000,0.0000064342,3.2158000000
0.9506100000,0.0000064853,3.2163000000
0.9518000000,0.0000065322,3.2194000000
0.9533700000,0.0000065838,3.2202000000
0.9544400000,0.0000066371,3.2224000000
0.9558800000,0.0000066860,3.2247000000
0.9571900000,0.0000067326,3.2263000000
0.9585300000,0.0000067855,3.2283000000
0.9599100000,0.0000068382,3.2295000000
0.9612900000,0.0000068877,3.2315000000
0.9626500000,0.0000069363,3.2327000000
0.9642000000,0.0000069918,3.2338000000
0.9654100000,0.0000070399,3.2372000000
0.9667200000,0.0000070909,3.2387000000
0.9680800000,0.0000071329,3.2397000000
0.9693900000,0.0000071884,3.2420000000
0.9707900000,0.0000072380,3.2448000000
0.9722600000,0.0000072813,3.2457000000
0.9735800000,0.0000073325,3.2483000000
0.9749900000,0.0000073843,3.2492000000
0.9764800000,0.0000074290,3.2503000000
0.9779600000,0.0000074835,3.2513000000
0.9791100000,0.0000075315,3.2524000000
0.9802900000,0.0000075868,3.2552000000
0.9818000000,0.0000076345,3.2557000000
0.9831000000,0.0000076895,3.2581000000
0.9846000000,0.0000077367,3.2602000000
0.9859500000,0.0000077858,3.2621000000
0.9871700000,0.0000078359,3.2634000000
0.9885300000,0.0000078906,3.2643000000
0.9898100000,0.0000079400,3.2667000000
0.9912400000,0.0000079912,3.2682000000
0.9926200000,0.0000080380,3.2701000000
0.9940400000,0.0000080871,3.2713000000
0.9953100000,0.0000081416,3.2727000000
0.9969000000,0.0000081943,3.2756000000
0.9983900000,0.0000082433,3.2775000000
0.9997700000,0.0000082974,3.2789000000
1.0011700000,0.0000083407,3.2794000000
